#FORMAT	     : EMSA/MAS Spectral Data File
#VERSION     : 1.0
#TITLE       : plasmon
#DATE        : 
#TIME        : 
#OWNER       : 
#NPOINTS     : 211
#NCOLUMNS    : 1
#XUNITS      : px
#YUNITS      : 
#DATATYPE    : XY
#XPERCHAN -px: 1.000000e+000
#OFFSET      : 0.000000e+000
#SPECTRUM    : Spectral Data Starts Here
0.000000e+000, 2.965000e+001
1.000000e+000, 3.140000e+001
2.000000e+000, 3.112000e+001
3.000000e+000, 3.020000e+001
4.000000e+000, 3.224000e+001
5.000000e+000, 3.215000e+001
6.000000e+000, 3.278000e+001
7.000000e+000, 3.446000e+001
8.000000e+000, 3.389000e+001
9.000000e+000, 3.399000e+001
1.000000e+001, 3.497000e+001
1.100000e+001, 3.538000e+001
1.200000e+001, 3.703000e+001
1.300000e+001, 3.590000e+001
1.400000e+001, 3.463000e+001
1.500000e+001, 3.565000e+001
1.600000e+001, 3.634000e+001
1.700000e+001, 4.081000e+001
1.800000e+001, 4.153000e+001
1.900000e+001, 4.073000e+001
2.000000e+001, 4.075000e+001
2.100000e+001, 3.997000e+001
2.200000e+001, 4.094000e+001
2.300000e+001, 4.215000e+001
2.400000e+001, 4.360000e+001
2.500000e+001, 4.255000e+001
2.600000e+001, 4.068000e+001
2.700000e+001, 4.103000e+001
2.800000e+001, 4.343000e+001
2.900000e+001, 4.447000e+001
3.000000e+001, 4.977000e+001
3.100000e+001, 5.068000e+001
3.200000e+001, 5.029000e+001
3.300000e+001, 4.952000e+001
3.400000e+001, 5.202000e+001
3.500000e+001, 5.417000e+001
3.600000e+001, 5.504000e+001
3.700000e+001, 5.350000e+001
3.800000e+001, 5.492000e+001
3.900000e+001, 5.666000e+001
4.000000e+001, 5.758000e+001
4.100000e+001, 6.118000e+001
4.200000e+001, 6.405000e+001
4.300000e+001, 6.291000e+001
4.400000e+001, 6.190000e+001
4.500000e+001, 6.590000e+001
4.600000e+001, 6.404000e+001
4.700000e+001, 6.728000e+001
4.800000e+001, 7.036000e+001
4.900000e+001, 7.131000e+001
5.000000e+001, 7.422000e+001
5.100000e+001, 7.641000e+001
5.200000e+001, 7.930000e+001
5.300000e+001, 8.256000e+001
5.400000e+001, 8.461000e+001
5.500000e+001, 8.651000e+001
5.600000e+001, 8.863000e+001
5.700000e+001, 8.823000e+001
5.800000e+001, 9.162000e+001
5.900000e+001, 9.722000e+001
6.000000e+001, 9.754000e+001
6.100000e+001, 9.998000e+001
6.200000e+001, 1.024400e+002
6.300000e+001, 1.065100e+002
6.400000e+001, 1.106700e+002
6.500000e+001, 1.108000e+002
6.600000e+001, 1.134000e+002
6.700000e+001, 1.238000e+002
6.800000e+001, 1.257400e+002
6.900000e+001, 1.274700e+002
7.000000e+001, 1.348900e+002
7.100000e+001, 1.370200e+002
7.200000e+001, 1.435000e+002
7.300000e+001, 1.491700e+002
7.400000e+001, 1.514600e+002
7.500000e+001, 1.548600e+002
7.600000e+001, 1.560800e+002
7.700000e+001, 1.617100e+002
7.800000e+001, 1.696600e+002
7.900000e+001, 1.780900e+002
8.000000e+001, 1.836200e+002
8.100000e+001, 1.874700e+002
8.200000e+001, 1.947000e+002
8.300000e+001, 1.999500e+002
8.400000e+001, 2.064900e+002
8.500000e+001, 2.078900e+002
8.600000e+001, 2.079600e+002
8.700000e+001, 2.171000e+002
8.800000e+001, 2.164500e+002
8.900000e+001, 2.286200e+002
9.000000e+001, 2.396700e+002
9.100000e+001, 2.418900e+002
9.200000e+001, 2.493500e+002
9.300000e+001, 2.559500e+002
9.400000e+001, 2.603900e+002
9.500000e+001, 2.609900e+002
9.600000e+001, 2.653000e+002
9.700000e+001, 2.711000e+002
9.800000e+001, 2.802100e+002
9.900000e+001, 2.853800e+002
1.000000e+002, 2.770900e+002
1.010000e+002, 2.725100e+002
1.020000e+002, 2.764300e+002
1.030000e+002, 2.782500e+002
1.040000e+002, 2.795100e+002
1.050000e+002, 2.817400e+002
1.060000e+002, 2.818500e+002
1.070000e+002, 2.875800e+002
1.080000e+002, 2.855900e+002
1.090000e+002, 2.818400e+002
1.100000e+002, 2.714000e+002
1.110000e+002, 2.671800e+002
1.120000e+002, 2.644300e+002
1.130000e+002, 2.658500e+002
1.140000e+002, 2.664600e+002
1.150000e+002, 2.570600e+002
1.160000e+002, 2.500200e+002
1.170000e+002, 2.496500e+002
1.180000e+002, 2.477300e+002
1.190000e+002, 2.455300e+002
1.200000e+002, 2.393300e+002
1.210000e+002, 2.325300e+002
1.220000e+002, 2.273100e+002
1.230000e+002, 2.259700e+002
1.240000e+002, 2.156400e+002
1.250000e+002, 2.202300e+002
1.260000e+002, 2.184700e+002
1.270000e+002, 2.161300e+002
1.280000e+002, 2.079700e+002
1.290000e+002, 1.977700e+002
1.300000e+002, 1.986200e+002
1.310000e+002, 1.916500e+002
1.320000e+002, 1.829700e+002
1.330000e+002, 1.782200e+002
1.340000e+002, 1.794500e+002
1.350000e+002, 1.765500e+002
1.360000e+002, 1.702200e+002
1.370000e+002, 1.722900e+002
1.380000e+002, 1.659700e+002
1.390000e+002, 1.637400e+002
1.400000e+002, 1.536100e+002
1.410000e+002, 1.499800e+002
1.420000e+002, 1.430000e+002
1.430000e+002, 1.434800e+002
1.440000e+002, 1.430600e+002
1.450000e+002, 1.359600e+002
1.460000e+002, 1.340500e+002
1.470000e+002, 1.356500e+002
1.480000e+002, 1.337100e+002
1.490000e+002, 1.291700e+002
1.500000e+002, 1.290600e+002
1.510000e+002, 1.294500e+002
1.520000e+002, 1.264600e+002
1.530000e+002, 1.258100e+002
1.540000e+002, 1.209600e+002
1.550000e+002, 1.177000e+002
1.560000e+002, 1.145300e+002
1.570000e+002, 1.112200e+002
1.580000e+002, 1.140400e+002
1.590000e+002, 1.108400e+002
1.600000e+002, 1.075700e+002
1.610000e+002, 1.060000e+002
1.620000e+002, 1.023400e+002
1.630000e+002, 1.055700e+002
1.640000e+002, 1.050400e+002
1.650000e+002, 1.056300e+002
1.660000e+002, 1.057900e+002
1.670000e+002, 1.028200e+002
1.680000e+002, 9.880000e+001
1.690000e+002, 9.491000e+001
1.700000e+002, 9.637000e+001
1.710000e+002, 9.645000e+001
1.720000e+002, 9.168000e+001
1.730000e+002, 8.616000e+001
1.740000e+002, 8.560000e+001
1.750000e+002, 8.831000e+001
1.760000e+002, 8.586000e+001
1.770000e+002, 8.085000e+001
1.780000e+002, 7.985000e+001
1.790000e+002, 8.129000e+001
1.800000e+002, 8.163000e+001
1.810000e+002, 7.949000e+001
1.820000e+002, 7.604000e+001
1.830000e+002, 7.484000e+001
1.840000e+002, 7.722000e+001
1.850000e+002, 7.965000e+001
1.860000e+002, 7.815000e+001
1.870000e+002, 7.659000e+001
1.880000e+002, 7.172000e+001
1.890000e+002, 7.151000e+001
1.900000e+002, 7.388000e+001
1.910000e+002, 7.541000e+001
1.920000e+002, 7.229000e+001
1.930000e+002, 7.061000e+001
1.940000e+002, 6.872000e+001
1.950000e+002, 6.670000e+001
1.960000e+002, 6.803000e+001
1.970000e+002, 6.923000e+001
1.980000e+002, 6.523000e+001
1.990000e+002, 6.460000e+001
2.000000e+002, 6.450000e+001
2.010000e+002, 6.224000e+001
2.020000e+002, 6.335000e+001
2.030000e+002, 6.509000e+001
2.040000e+002, 6.440000e+001
2.050000e+002, 6.403000e+001
2.060000e+002, 6.167000e+001
2.070000e+002, 6.154000e+001
2.080000e+002, 5.943000e+001
2.090000e+002, 5.979000e+001
2.100000e+002, 6.139000e+001
#ENDOFDATA   : End Of Data and File